ENVI ASCII Plot File [Wed Jul  1 16:19:01 2009]
Column 1: X Axis
Column 2: spectrum #1~~2
   350.000000   26.717789
   351.000000   26.795057
   352.000000   26.816683
   353.000000   26.929443
   354.000000   26.929857
   355.000000   26.917227
   356.000000   26.927726
   357.000000   26.990449
   358.000000   27.000196
   359.000000   27.013498
   360.000000   27.083973
   361.000000   27.061728
   362.000000   27.058333
   363.000000   27.051999
   364.000000   26.966506
   365.000000   26.942849
   366.000000   26.911229
   367.000000   26.859433
   368.000000   26.842993
   369.000000   26.844311
   370.000000   26.815803
   371.000000   26.719242
   372.000000   26.713079
   373.000000   26.663466
   374.000000   26.595104
   375.000000   26.561479
   376.000000   26.476407
   377.000000   26.387298
   378.000000   26.299291
   379.000000   26.187132
   380.000000   26.091770
   381.000000   26.011279
   382.000000   25.946282
   383.000000   25.910332
   384.000000   25.860398
   385.000000   25.788607
   386.000000   25.679375
   387.000000   25.603763
   388.000000   25.519582
   389.000000   25.424041
   390.000000   25.317218
   391.000000   25.260838
   392.000000   25.174564
   393.000000   25.043048
   394.000000   24.969283
   395.000000   24.895593
   396.000000   24.833079
   397.000000   24.790037
   398.000000   24.723765
   399.000000   24.677287
   400.000000   24.639737
   401.000000   24.589878
   402.000000   24.518843
   403.000000   24.462550
   404.000000   24.417246
   405.000000   24.320478
   406.000000   24.305746
   407.000000   24.299799
   408.000000   24.263437
   409.000000   24.272155
   410.000000   24.247590
   411.000000   24.202961
   412.000000   24.153300
   413.000000   24.132228
   414.000000   24.107583
   415.000000   24.082473
   416.000000   24.088013
   417.000000   24.062144
   418.000000   24.044551
   419.000000   24.048563
   420.000000   24.011315
   421.000000   23.997190
   422.000000   23.996583
   423.000000   24.001638
   424.000000   24.000958
   425.000000   24.000270
   426.000000   23.995549
   427.000000   23.972541
   428.000000   23.967586
   429.000000   23.956851
   430.000000   23.938260
   431.000000   23.957896
   432.000000   23.967554
   433.000000   23.974287
   434.000000   23.982801
   435.000000   24.000009
   436.000000   24.014530
   437.000000   24.035276
   438.000000   24.082468
   439.000000   24.123569
   440.000000   24.167451
   441.000000   24.214707
   442.000000   24.259948
   443.000000   24.304756
   444.000000   24.356772
   445.000000   24.420895
   446.000000   24.484231
   447.000000   24.568069
   448.000000   24.657260
   449.000000   24.729343
   450.000000   24.832905
   451.000000   24.930248
   452.000000   25.020639
   453.000000   25.119111
   454.000000   25.215577
   455.000000   25.315711
   456.000000   25.421277
   457.000000   25.531386
   458.000000   25.635215
   459.000000   25.744891
   460.000000   25.873600
   461.000000   25.986384
   462.000000   26.116717
   463.000000   26.259162
   464.000000   26.392224
   465.000000   26.543446
   466.000000   26.685977
   467.000000   26.813448
   468.000000   26.951068
   469.000000   27.082146
   470.000000   27.215087
   471.000000   27.356460
   472.000000   27.506102
   473.000000   27.636700
   474.000000   27.759523
   475.000000   27.895795
   476.000000   28.001103
   477.000000   28.096921
   478.000000   28.185779
   479.000000   28.261881
   480.000000   28.317604
   481.000000   28.363753
   482.000000   28.403798
   483.000000   28.408036
   484.000000   28.423561
   485.000000   28.429892
   486.000000   28.396689
   487.000000   28.391493
   488.000000   28.364050
   489.000000   28.317467
   490.000000   28.277906
   491.000000   28.206556
   492.000000   28.124998
   493.000000   28.040432
   494.000000   27.952220
   495.000000   27.848186
   496.000000   27.743575
   497.000000   27.653764
   498.000000   27.527681
   499.000000   27.396116
   500.000000   27.263976
   501.000000   27.138065
   502.000000   26.998756
   503.000000   26.864591
   504.000000   26.735881
   505.000000   26.582469
   506.000000   26.443476
   507.000000   26.296771
   508.000000   26.127262
   509.000000   25.988946
   510.000000   25.832869
   511.000000   25.677259
   512.000000   25.555469
   513.000000   25.413267
   514.000000   25.267511
   515.000000   25.123674
   516.000000   24.984653
   517.000000   24.844338
   518.000000   24.718314
   519.000000   24.611498
   520.000000   24.488087
   521.000000   24.376558
   522.000000   24.265814
   523.000000   24.145316
   524.000000   24.036469
   525.000000   23.936455
   526.000000   23.842073
   527.000000   23.743620
   528.000000   23.662319
   529.000000   23.582380
   530.000000   23.499282
   531.000000   23.414820
   532.000000   23.326263
   533.000000   23.236090
   534.000000   23.145118
   535.000000   23.053486
   536.000000   22.963663
   537.000000   22.876209
   538.000000   22.791717
   539.000000   22.699933
   540.000000   22.615455
   541.000000   22.538276
   542.000000   22.450525
   543.000000   22.378073
   544.000000   22.307363
   545.000000   22.231482
   546.000000   22.159922
   547.000000   22.092253
   548.000000   22.027570
   549.000000   21.964916
   550.000000   21.921346
   551.000000   21.879571
   552.000000   21.840695
   553.000000   21.819391
   554.000000   21.798292
   555.000000   21.781175
   556.000000   21.769808
   557.000000   21.759110
   558.000000   21.748739
   559.000000   21.744837
   560.000000   21.754955
   561.000000   21.744190
   562.000000   21.755351
   563.000000   21.778038
   564.000000   21.774992
   565.000000   21.796170
   566.000000   21.814884
   567.000000   21.826037
   568.000000   21.852066
   569.000000   21.867922
   570.000000   21.876384
   571.000000   21.878546
   572.000000   21.883930
   573.000000   21.881491
   574.000000   21.874289
   575.000000   21.868469
   576.000000   21.860415
   577.000000   21.853727
   578.000000   21.847832
   579.000000   21.835578
   580.000000   21.830730
   581.000000   21.830560
   582.000000   21.834008
   583.000000   21.830567
   584.000000   21.848307
   585.000000   21.871194
   586.000000   21.874782
   587.000000   21.920087
   588.000000   21.958311
   589.000000   21.995177
   590.000000   22.072415
   591.000000   22.143698
   592.000000   22.231009
   593.000000   22.341865
   594.000000   22.462348
   595.000000   22.571790
   596.000000   22.687680
   597.000000   22.827752
   598.000000   22.944675
   599.000000   23.077802
   600.000000   23.215855
   601.000000   23.329168
   602.000000   23.445986
   603.000000   23.558857
   604.000000   23.663473
   605.000000   23.740594
   606.000000   23.832696
   607.000000   23.912450
   608.000000   23.960408
   609.000000   24.025840
   610.000000   24.052289
   611.000000   24.051397
   612.000000   24.040901
   613.000000   24.000665
   614.000000   23.949877
   615.000000   23.892422
   616.000000   23.829253
   617.000000   23.736403
   618.000000   23.642401
   619.000000   23.558480
   620.000000   23.426401
   621.000000   23.305215
   622.000000   23.179862
   623.000000   23.029792
   624.000000   22.904501
   625.000000   22.770451
   626.000000   22.627543
   627.000000   22.483640
   628.000000   22.366547
   629.000000   22.253442
   630.000000   22.140992
   631.000000   22.078225
   632.000000   22.011845
   633.000000   21.965215
   634.000000   21.961553
   635.000000   21.980875
   636.000000   22.012541
   637.000000   22.064625
   638.000000   22.160235
   639.000000   22.270970
   640.000000   22.426651
   641.000000   22.631941
   642.000000   22.855079
   643.000000   23.137264
   644.000000   23.445069
   645.000000   23.758753
   646.000000   24.131938
   647.000000   24.514338
   648.000000   24.914147
   649.000000   25.348479
   650.000000   25.782974
   651.000000   26.247894
   652.000000   26.757790
   653.000000   27.280353
   654.000000   27.768135
   655.000000   28.250352
   656.000000   28.754970
   657.000000   29.265266
   658.000000   29.765459
   659.000000   30.264088
   660.000000   30.762737
   661.000000   31.227262
   662.000000   31.690606
   663.000000   32.148013
   664.000000   32.570495
   665.000000   32.994284
   666.000000   33.395053
   667.000000   33.768893
   668.000000   34.149093
   669.000000   34.490922
   670.000000   34.812973
   671.000000   35.126364
   672.000000   35.418533
   673.000000   35.694689
   674.000000   35.956195
   675.000000   36.202500
   676.000000   36.420237
   677.000000   36.631814
   678.000000   36.834827
   679.000000   36.993145
   680.000000   37.151686
   681.000000   37.287997
   682.000000   37.394651
   683.000000   37.520079
   684.000000   37.656635
   685.000000   37.785588
   686.000000   37.897959
   687.000000   37.993631
   688.000000   38.082387
   689.000000   38.168313
   690.000000   38.252754
   691.000000   38.321719
   692.000000   38.382515
   693.000000   38.438408
   694.000000   38.477553
   695.000000   38.506766
   696.000000   38.545907
   697.000000   38.615578
   698.000000   38.650782
   699.000000   38.689051
   700.000000   38.727651
   701.000000   38.755242
   702.000000   38.786444
   703.000000   38.806742
   704.000000   38.815703
   705.000000   38.838500
   706.000000   38.854421
   707.000000   38.862807
   708.000000   38.862253
   709.000000   38.883782
   710.000000   38.893580
   711.000000   38.896211
   712.000000   38.899760
   713.000000   38.909942
   714.000000   38.918710
   715.000000   38.926626
   716.000000   38.947435
   717.000000   38.934748
   718.000000   38.923394
   719.000000   38.926556
   720.000000   38.903816
   721.000000   38.916797
   722.000000   38.931676
   723.000000   38.906477
   724.000000   38.921520
   725.000000   38.926188
   726.000000   38.922702
   727.000000   38.932214
   728.000000   38.932697
   729.000000   38.928722
   730.000000   38.922378
   731.000000   38.926122
   732.000000   38.915021
   733.000000   38.906290
   734.000000   38.915034
   735.000000   38.906727
   736.000000   38.894775
   737.000000   38.887752
   738.000000   38.905096
   739.000000   38.898173
   740.000000   38.891768
   741.000000   38.890351
   742.000000   38.887898
   743.000000   38.884668
   744.000000   38.875077
   745.000000   38.854981
   746.000000   38.872423
   747.000000   38.866509
   748.000000   38.852768
   749.000000   38.855839
   750.000000   38.844851
   751.000000   38.833317
   752.000000   38.823521
   753.000000   38.817097
   754.000000   38.762795
   755.000000   38.697771
   756.000000   38.684056
   757.000000   38.645702
   758.000000   38.647709
   759.000000   38.670269
   760.000000   38.699117
   761.000000   38.743811
   762.000000   38.774614
   763.000000   38.792717
   764.000000   38.793617
   765.000000   38.807440
   766.000000   38.815925
   767.000000   38.814780
   768.000000   38.815446
   769.000000   38.805606
   770.000000   38.797670
   771.000000   38.801987
   772.000000   38.791000
   773.000000   38.779324
   774.000000   38.771947
   775.000000   38.779611
   776.000000   38.759354
   777.000000   38.765173
   778.000000   38.796234
   779.000000   38.774652
   780.000000   38.783831
   781.000000   38.789437
   782.000000   38.771807
   783.000000   38.763380
   784.000000   38.744197
   785.000000   38.724215
   786.000000   38.719487
   787.000000   38.732998
   788.000000   38.738022
   789.000000   38.737712
   790.000000   38.759547
   791.000000   38.745187
   792.000000   38.732891
   793.000000   38.736583
   794.000000   38.731892
   795.000000   38.732931
   796.000000   38.735519
   797.000000   38.735315
   798.000000   38.705197
   799.000000   38.699745
   800.000000   38.708591
   801.000000   38.693417
   802.000000   38.715376
   803.000000   38.719888
   804.000000   38.698182
   805.000000   38.716112
   806.000000   38.706001
   807.000000   38.683749
   808.000000   38.658586
   809.000000   38.663692
   810.000000   38.663320
   811.000000   38.660074
   812.000000   38.660410
   813.000000   38.651810
   814.000000   38.658402
   815.000000   38.673957
   816.000000   38.652235
   817.000000   38.653514
   818.000000   38.664576
   819.000000   38.678153
   820.000000   38.662233
   821.000000   38.679872
   822.000000   38.692899
   823.000000   38.651168
   824.000000   38.661754
   825.000000   38.661930
   826.000000   38.655282
   827.000000   38.674358
   828.000000   38.671172
   829.000000   38.660329
   830.000000   38.647944
   831.000000   38.654418
   832.000000   38.662437
   833.000000   38.679905
   834.000000   38.715212
   835.000000   38.692820
   836.000000   38.690792
   837.000000   38.698891
   838.000000   38.685949
   839.000000   38.680307
   840.000000   38.671319
   841.000000   38.658798
   842.000000   38.659184
   843.000000   38.685962
   844.000000   38.706499
   845.000000   38.698773
   846.000000   38.714513
   847.000000   38.701079
   848.000000   38.675514
   849.000000   38.667425
   850.000000   38.668617
   851.000000   38.669256
   852.000000   38.671574
   853.000000   38.692130
   854.000000   38.670966
   855.000000   38.669004
   856.000000   38.708798
   857.000000   38.660293
   858.000000   38.677201
   859.000000   38.714857
   860.000000   38.722224
   861.000000   38.712961
   862.000000   38.703112
   863.000000   38.687731
   864.000000   38.646218
   865.000000   38.652009
   866.000000   38.669606
   867.000000   38.688803
   868.000000   38.703228
   869.000000   38.689779
   870.000000   38.679906
   871.000000   38.700285
   872.000000   38.714332
   873.000000   38.713274
   874.000000   38.710519
   875.000000   38.736827
   876.000000   38.676637
   877.000000   38.647064
   878.000000   38.659250
   879.000000   38.624543
   880.000000   38.651201
   881.000000   38.671720
   882.000000   38.647630
   883.000000   38.684564
   884.000000   38.681802
   885.000000   38.660123
   886.000000   38.649756
   887.000000   38.669996
   888.000000   38.650017
   889.000000   38.599163
   890.000000   38.612599
   891.000000   38.595723
   892.000000   38.576314
   893.000000   38.566739
   894.000000   38.553334
   895.000000   38.585207
   896.000000   38.612598
   897.000000   38.579366
   898.000000   38.622737
   899.000000   38.639548
   900.000000   38.620158
   901.000000   38.547888
   902.000000   38.560704
   903.000000   38.538846
   904.000000   38.459172
   905.000000   38.475311
   906.000000   38.480292
   907.000000   38.493648
   908.000000   38.531934
   909.000000   38.533382
   910.000000   38.496699
   911.000000   38.470523
   912.000000   38.556719
   913.000000   38.452498
   914.000000   38.436626
   915.000000   38.522830
   916.000000   38.521828
   917.000000   38.514388
   918.000000   38.487207
   919.000000   38.431285
   920.000000   38.379239
   921.000000   38.385456
   922.000000   38.412106
   923.000000   38.400176
   924.000000   38.503003
   925.000000   38.530699
   926.000000   38.500640
   927.000000   38.678127
   928.000000   38.601280
   929.000000   38.437800
   930.000000   38.283978
   931.000000   38.370704
   932.000000   38.358240
   933.000000   38.372458
   934.000000   38.537823
   935.000000   38.457003
   936.000000   38.557240
   937.000000   38.700934
   938.000000   38.520852
   939.000000   38.650846
   940.000000   38.675356
   941.000000   38.513411
   942.000000   38.428239
   943.000000   38.369129
   944.000000   38.314568
   945.000000   38.251554
   946.000000   38.335370
   947.000000   38.304515
   948.000000   38.334156
   949.000000   38.723308
   950.000000   38.664125
   951.000000   38.600444
   952.000000   38.603093
   953.000000   38.713583
   954.000000   38.611186
   955.000000   38.570944
   956.000000   38.690258
   957.000000   38.478318
   958.000000   38.524339
   959.000000   38.577505
   960.000000   38.370007
   961.000000   38.536860
   962.000000   38.610746
   963.000000   38.622213
   964.000000   38.744293
   965.000000   38.858044
   966.000000   38.845191
   967.000000   38.686797
   968.000000   38.577450
   969.000000   38.396755
   970.000000   38.364933
   971.000000   38.691891
   972.000000   38.653119
   973.000000   38.631002
   974.000000   38.640586
   975.000000   38.691507
   976.000000   38.621611
   977.000000   38.596901
   978.000000   38.629005
   979.000000   38.579598
   980.000000   38.708432
   981.000000   38.773653
   982.000000   38.637847
   983.000000   38.608812
   984.000000   38.527023
   985.000000   38.441322
   986.000000   38.427550
   987.000000   38.690360
   988.000000   38.751374
   989.000000   38.659713
   990.000000   38.890808
   991.000000   38.793796
   992.000000   38.706953
   993.000000   38.747125
   994.000000   38.446448
   995.000000   38.496408
   996.000000   38.600485
   997.000000   38.428497
   998.000000   38.407317
   999.000000   38.438747
  1000.000000   38.490578
  1001.000000   38.563711
  1002.000000   38.577190
  1003.000000   38.591430
  1004.000000   38.619993
  1005.000000   38.651823
  1006.000000   38.636214
  1007.000000   38.596143
  1008.000000   38.561127
  1009.000000   38.547406
  1010.000000   38.508495
  1011.000000   38.472315
  1012.000000   38.449759
  1013.000000   38.429535
  1014.000000   38.440364
  1015.000000   38.457095
  1016.000000   38.465532
  1017.000000   38.475454
  1018.000000   38.485447
  1019.000000   38.477524
  1020.000000   38.455716
  1021.000000   38.439265
  1022.000000   38.434821
  1023.000000   38.438355
  1024.000000   38.450368
  1025.000000   38.491096
  1026.000000   38.521644
  1027.000000   38.478318
  1028.000000   38.424493
  1029.000000   38.407856
  1030.000000   38.407646
  1031.000000   38.404407
  1032.000000   38.398569
  1033.000000   38.373983
  1034.000000   38.326256
  1035.000000   38.315413
  1036.000000   38.359906
  1037.000000   38.405098
  1038.000000   38.450754
  1039.000000   38.498400
  1040.000000   38.506948
  1041.000000   38.478373
  1042.000000   38.430786
  1043.000000   38.392313
  1044.000000   38.361847
  1045.000000   38.325703
  1046.000000   38.296863
  1047.000000   38.293564
  1048.000000   38.311231
  1049.000000   38.318733
  1050.000000   38.307196
  1051.000000   38.303263
  1052.000000   38.323104
  1053.000000   38.353292
  1054.000000   38.387189
  1055.000000   38.419503
  1056.000000   38.438331
  1057.000000   38.445930
  1058.000000   38.444520
  1059.000000   38.411863
  1060.000000   38.371518
  1061.000000   38.350716
  1062.000000   38.340388
  1063.000000   38.373633
  1064.000000   38.404340
  1065.000000   38.397564
  1066.000000   38.390189
  1067.000000   38.398232
  1068.000000   38.400183
  1069.000000   38.388544
  1070.000000   38.384819
  1071.000000   38.408811
  1072.000000   38.432982
  1073.000000   38.440130
  1074.000000   38.443817
  1075.000000   38.439629
  1076.000000   38.428053
  1077.000000   38.429099
  1078.000000   38.419787
  1079.000000   38.417106
  1080.000000   38.444878
  1081.000000   38.478599
  1082.000000   38.506149
  1083.000000   38.548360
  1084.000000   38.589333
  1085.000000   38.599430
  1086.000000   38.562791
  1087.000000   38.532205
  1088.000000   38.514098
  1089.000000   38.516899
  1090.000000   38.528536
  1091.000000   38.530961
  1092.000000   38.534201
  1093.000000   38.541872
  1094.000000   38.556425
  1095.000000   38.570242
  1096.000000   38.557537
  1097.000000   38.550877
  1098.000000   38.568660
  1099.000000   38.566325
  1100.000000   38.578254
  1101.000000   38.615114
  1102.000000   38.648485
  1103.000000   38.635795
  1104.000000   38.656754
  1105.000000   38.684710
  1106.000000   38.724542
  1107.000000   38.767884
  1108.000000   38.826057
  1109.000000   38.872269
  1110.000000   38.904570
  1111.000000   38.928947
  1112.000000   38.933148
  1113.000000   38.989739
  1114.000000   39.046537
