ENVI ASCII Plot File [Wed Jul  1 16:21:15 2009]
Column 1: X Axis
Column 2: spectrum #1~~2
   350.000000    6.227762
   351.000000    6.201578
   352.000000    6.200506
   353.000000    6.195889
   354.000000    6.136322
   355.000000    6.099258
   356.000000    6.109899
   357.000000    6.128391
   358.000000    6.169796
   359.000000    6.201576
   360.000000    6.192457
   361.000000    6.160814
   362.000000    6.118483
   363.000000    6.074814
   364.000000    6.050586
   365.000000    6.036593
   366.000000    6.040972
   367.000000    6.061545
   368.000000    6.055179
   369.000000    6.059370
   370.000000    6.042612
   371.000000    5.979620
   372.000000    6.017659
   373.000000    6.046612
   374.000000    6.066108
   375.000000    6.078217
   376.000000    6.042804
   377.000000    6.020570
   378.000000    6.017624
   379.000000    5.999745
   380.000000    6.039865
   381.000000    6.074118
   382.000000    6.070094
   383.000000    6.049900
   384.000000    6.066150
   385.000000    6.085848
   386.000000    6.064121
   387.000000    6.069809
   388.000000    6.128666
   389.000000    6.200489
   390.000000    6.139064
   391.000000    6.046088
   392.000000    6.002880
   393.000000    6.025824
   394.000000    6.009633
   395.000000    6.049107
   396.000000    6.092755
   397.000000    6.105568
   398.000000    6.089373
   399.000000    6.076127
   400.000000    6.073108
   401.000000    6.095490
   402.000000    6.090323
   403.000000    6.088591
   404.000000    6.092385
   405.000000    6.077256
   406.000000    6.070863
   407.000000    6.066005
   408.000000    6.058890
   409.000000    6.073461
   410.000000    6.089075
   411.000000    6.101647
   412.000000    6.104547
   413.000000    6.086600
   414.000000    6.072423
   415.000000    6.066751
   416.000000    6.077434
   417.000000    6.103728
   418.000000    6.117061
   419.000000    6.107256
   420.000000    6.112921
   421.000000    6.104067
   422.000000    6.091819
   423.000000    6.087543
   424.000000    6.104420
   425.000000    6.115817
   426.000000    6.120917
   427.000000    6.123213
   428.000000    6.125773
   429.000000    6.125875
   430.000000    6.125908
   431.000000    6.157868
   432.000000    6.162140
   433.000000    6.147124
   434.000000    6.116591
   435.000000    6.137782
   436.000000    6.145360
   437.000000    6.147506
   438.000000    6.163185
   439.000000    6.185284
   440.000000    6.192529
   441.000000    6.183682
   442.000000    6.174751
   443.000000    6.172480
   444.000000    6.167847
   445.000000    6.156396
   446.000000    6.183453
   447.000000    6.190743
   448.000000    6.188448
   449.000000    6.189870
   450.000000    6.191937
   451.000000    6.185491
   452.000000    6.175948
   453.000000    6.190506
   454.000000    6.191409
   455.000000    6.192865
   456.000000    6.199674
   457.000000    6.196915
   458.000000    6.188501
   459.000000    6.184624
   460.000000    6.197049
   461.000000    6.202544
   462.000000    6.203344
   463.000000    6.198874
   464.000000    6.186220
   465.000000    6.195720
   466.000000    6.199720
   467.000000    6.194717
   468.000000    6.220563
   469.000000    6.216340
   470.000000    6.203213
   471.000000    6.195248
   472.000000    6.179877
   473.000000    6.165951
   474.000000    6.161993
   475.000000    6.186289
   476.000000    6.197812
   477.000000    6.205635
   478.000000    6.210804
   479.000000    6.210258
   480.000000    6.200166
   481.000000    6.191080
   482.000000    6.188974
   483.000000    6.202290
   484.000000    6.205117
   485.000000    6.204523
   486.000000    6.209964
   487.000000    6.197729
   488.000000    6.190325
   489.000000    6.191821
   490.000000    6.209992
   491.000000    6.213044
   492.000000    6.210197
   493.000000    6.204888
   494.000000    6.205583
   495.000000    6.196214
   496.000000    6.192596
   497.000000    6.211017
   498.000000    6.223728
   499.000000    6.224389
   500.000000    6.214915
   501.000000    6.199405
   502.000000    6.206173
   503.000000    6.213559
   504.000000    6.219366
   505.000000    6.245804
   506.000000    6.245540
   507.000000    6.237964
   508.000000    6.234594
   509.000000    6.237401
   510.000000    6.232710
   511.000000    6.230507
   512.000000    6.249958
   513.000000    6.241473
   514.000000    6.233385
   515.000000    6.230058
   516.000000    6.229938
   517.000000    6.242491
   518.000000    6.257262
   519.000000    6.269654
   520.000000    6.270040
   521.000000    6.268785
   522.000000    6.263977
   523.000000    6.252619
   524.000000    6.250981
   525.000000    6.257464
   526.000000    6.267594
   527.000000    6.268360
   528.000000    6.262612
   529.000000    6.257789
   530.000000    6.256322
   531.000000    6.258723
   532.000000    6.261268
   533.000000    6.266171
   534.000000    6.275484
   535.000000    6.272083
   536.000000    6.268429
   537.000000    6.266674
   538.000000    6.270882
   539.000000    6.270585
   540.000000    6.276663
   541.000000    6.288077
   542.000000    6.286200
   543.000000    6.286184
   544.000000    6.288897
   545.000000    6.294923
   546.000000    6.290271
   547.000000    6.297192
   548.000000    6.307853
   549.000000    6.311222
   550.000000    6.309470
   551.000000    6.304542
   552.000000    6.296016
   553.000000    6.280750
   554.000000    6.284558
   555.000000    6.295967
   556.000000    6.310500
   557.000000    6.320433
   558.000000    6.325604
   559.000000    6.326945
   560.000000    6.324768
   561.000000    6.326757
   562.000000    6.336145
   563.000000    6.346078
   564.000000    6.336097
   565.000000    6.329566
   566.000000    6.320554
   567.000000    6.308293
   568.000000    6.301935
   569.000000    6.311154
   570.000000    6.318968
   571.000000    6.312853
   572.000000    6.308114
   573.000000    6.305436
   574.000000    6.300312
   575.000000    6.283047
   576.000000    6.292790
   577.000000    6.301717
   578.000000    6.305303
   579.000000    6.306332
   580.000000    6.306186
   581.000000    6.301410
   582.000000    6.290063
   583.000000    6.293817
   584.000000    6.306828
   585.000000    6.316686
   586.000000    6.303722
   587.000000    6.316584
   588.000000    6.328922
   589.000000    6.333539
   590.000000    6.313223
   591.000000    6.311352
   592.000000    6.310165
   593.000000    6.303677
   594.000000    6.297199
   595.000000    6.293709
   596.000000    6.288653
   597.000000    6.277316
   598.000000    6.286170
   599.000000    6.302257
   600.000000    6.315271
   601.000000    6.300598
   602.000000    6.310120
   603.000000    6.302098
   604.000000    6.271331
   605.000000    6.262263
   606.000000    6.265628
   607.000000    6.271359
   608.000000    6.273078
   609.000000    6.274885
   610.000000    6.266255
   611.000000    6.250405
   612.000000    6.232140
   613.000000    6.243705
   614.000000    6.249675
   615.000000    6.248342
   616.000000    6.258131
   617.000000    6.260264
   618.000000    6.249743
   619.000000    6.224265
   620.000000    6.225479
   621.000000    6.232948
   622.000000    6.239859
   623.000000    6.237504
   624.000000    6.245847
   625.000000    6.248244
   626.000000    6.246918
   627.000000    6.254441
   628.000000    6.259375
   629.000000    6.263410
   630.000000    6.266800
   631.000000    6.266421
   632.000000    6.261214
   633.000000    6.248416
   634.000000    6.224412
   635.000000    6.227681
   636.000000    6.235136
   637.000000    6.244656
   638.000000    6.253753
   639.000000    6.257694
   640.000000    6.253500
   641.000000    6.241993
   642.000000    6.235552
   643.000000    6.236811
   644.000000    6.237296
   645.000000    6.231686
   646.000000    6.241712
   647.000000    6.235836
   648.000000    6.221993
   649.000000    6.211720
   650.000000    6.217723
   651.000000    6.227336
   652.000000    6.235794
   653.000000    6.227598
   654.000000    6.210141
   655.000000    6.199494
   656.000000    6.201483
   657.000000    6.210359
   658.000000    6.218885
   659.000000    6.223049
   660.000000    6.217304
   661.000000    6.210534
   662.000000    6.191883
   663.000000    6.169636
   664.000000    6.171835
   665.000000    6.186355
   666.000000    6.197445
   667.000000    6.200608
   668.000000    6.199726
   669.000000    6.197256
   670.000000    6.191893
   671.000000    6.182299
   672.000000    6.182044
   673.000000    6.175503
   674.000000    6.170715
   675.000000    6.184560
   676.000000    6.191100
   677.000000    6.185018
   678.000000    6.171211
   679.000000    6.182929
   680.000000    6.186877
   681.000000    6.181472
   682.000000    6.164331
   683.000000    6.167094
   684.000000    6.170489
   685.000000    6.169645
   686.000000    6.157825
   687.000000    6.171479
   688.000000    6.180986
   689.000000    6.182500
   690.000000    6.171322
   691.000000    6.165723
   692.000000    6.151159
   693.000000    6.125563
   694.000000    6.141323
   695.000000    6.158252
   696.000000    6.169488
   697.000000    6.167269
   698.000000    6.162492
   699.000000    6.147845
   700.000000    6.130733
   701.000000    6.129924
   702.000000    6.135405
   703.000000    6.140867
   704.000000    6.144108
   705.000000    6.139522
   706.000000    6.128083
   707.000000    6.118498
   708.000000    6.116785
   709.000000    6.136358
   710.000000    6.140958
   711.000000    6.136154
   712.000000    6.131430
   713.000000    6.112835
   714.000000    6.098509
   715.000000    6.095619
   716.000000    6.115632
   717.000000    6.120508
   718.000000    6.125793
   719.000000    6.137505
   720.000000    6.117191
   721.000000    6.106098
   722.000000    6.102180
   723.000000    6.103861
   724.000000    6.100774
   725.000000    6.096184
   726.000000    6.091030
   727.000000    6.087108
   728.000000    6.085312
   729.000000    6.080257
   730.000000    6.071452
   731.000000    6.075939
   732.000000    6.084855
   733.000000    6.089823
   734.000000    6.082960
   735.000000    6.080638
   736.000000    6.072201
   737.000000    6.063159
   738.000000    6.067445
   739.000000    6.062795
   740.000000    6.068206
   741.000000    6.082836
   742.000000    6.070346
   743.000000    6.045041
   744.000000    6.032673
   745.000000    6.050533
   746.000000    6.051771
   747.000000    6.049865
   748.000000    6.047407
   749.000000    6.048634
   750.000000    6.034083
   751.000000    6.024550
   752.000000    6.022760
   753.000000    6.028353
   754.000000    6.029263
   755.000000    6.041754
   756.000000    6.080471
   757.000000    6.057044
   758.000000    6.050070
   759.000000    6.049663
   760.000000    6.049407
   761.000000    6.047358
   762.000000    6.043958
   763.000000    6.041962
   764.000000    6.049149
   765.000000    6.039164
   766.000000    6.030327
   767.000000    6.027333
   768.000000    6.024268
   769.000000    6.027649
   770.000000    6.034066
   771.000000    6.041182
   772.000000    6.024347
   773.000000    6.015678
   774.000000    6.015346
   775.000000    6.022850
   776.000000    6.019341
   777.000000    6.030494
   778.000000    6.053980
   779.000000    6.039984
   780.000000    6.022902
   781.000000    6.006649
   782.000000    5.993444
   783.000000    5.981830
   784.000000    5.995131
   785.000000    6.017445
   786.000000    6.024740
   787.000000    6.007750
   788.000000    6.005068
   789.000000    6.013055
   790.000000    5.995804
   791.000000    5.994511
   792.000000    5.996900
   793.000000    5.997901
   794.000000    5.987711
   795.000000    5.984797
   796.000000    5.980311
   797.000000    5.964380
   798.000000    5.981911
   799.000000    6.000016
   800.000000    6.013992
   801.000000    6.016376
   802.000000    6.008085
   803.000000    5.988920
   804.000000    5.963923
   805.000000    5.982649
   806.000000    5.996606
   807.000000    6.002219
   808.000000    5.995374
   809.000000    5.994670
   810.000000    5.989067
   811.000000    5.985297
   812.000000    5.997621
   813.000000    5.999800
   814.000000    6.015611
   815.000000    6.035177
   816.000000    5.991921
   817.000000    5.994384
   818.000000    6.002008
   819.000000    5.996141
   820.000000    5.997066
   821.000000    6.003300
   822.000000    6.002134
   823.000000    5.975323
   824.000000    5.960318
   825.000000    5.961927
   826.000000    5.974472
   827.000000    5.977943
   828.000000    5.990434
   829.000000    6.005718
   830.000000    6.017842
   831.000000    5.978249
   832.000000    5.952900
   833.000000    5.943589
   834.000000    5.954740
   835.000000    5.950962
   836.000000    5.963301
   837.000000    5.979845
   838.000000    5.969049
   839.000000    5.961204
   840.000000    5.954653
   841.000000    5.950263
   842.000000    5.956641
   843.000000    5.972784
   844.000000    5.974661
   845.000000    5.944882
   846.000000    5.953213
   847.000000    5.961041
   848.000000    5.964015
   849.000000    5.953506
   850.000000    5.936361
   851.000000    5.917591
   852.000000    5.901806
   853.000000    5.905084
   854.000000    5.913336
   855.000000    5.927590
   856.000000    5.948327
   857.000000    5.962420
   858.000000    5.955093
   859.000000    5.936464
   860.000000    5.916772
   861.000000    5.927279
   862.000000    5.915552
   863.000000    5.897424
   864.000000    5.936892
   865.000000    5.921975
   866.000000    5.901938
   867.000000    5.896072
   868.000000    5.961300
   869.000000    5.947024
   870.000000    5.927047
   871.000000    5.961709
   872.000000    5.962432
   873.000000    5.920957
   874.000000    5.870281
   875.000000    5.884508
   876.000000    5.892814
   877.000000    5.896308
   878.000000    5.895988
   879.000000    5.897772
   880.000000    5.897083
   881.000000    5.890412
   882.000000    5.875538
   883.000000    5.901422
   884.000000    5.922553
   885.000000    5.932349
   886.000000    5.918219
   887.000000    5.909167
   888.000000    5.894476
   889.000000    5.875171
   890.000000    5.863649
   891.000000    5.846369
   892.000000    5.853602
   893.000000    5.898197
   894.000000    5.891088
   895.000000    5.918029
   896.000000    5.930962
   897.000000    5.874508
   898.000000    5.938890
   899.000000    5.949688
   900.000000    5.922272
   901.000000    5.925256
   902.000000    5.889455
   903.000000    5.854351
   904.000000    5.833578
   905.000000    5.849380
   906.000000    5.875420
   907.000000    5.915934
   908.000000    5.975909
   909.000000    5.997104
   910.000000    5.948719
   911.000000    5.864231
   912.000000    5.809960
   913.000000    5.828068
   914.000000    5.842726
   915.000000    5.850865
   916.000000    5.911525
   917.000000    5.869437
   918.000000    5.808915
   919.000000    5.772564
   920.000000    5.831801
   921.000000    5.838377
   922.000000    5.839894
   923.000000    5.911738
   924.000000    5.901681
   925.000000    5.894407
   926.000000    5.889191
   927.000000    5.829708
   928.000000    5.896602
   929.000000    5.959171
   930.000000    5.945090
   931.000000    5.863474
   932.000000    5.729666
   933.000000    5.678773
   934.000000    5.846045
   935.000000    5.907513
   936.000000    5.904794
   937.000000    5.929134
   938.000000    6.205796
   939.000000    6.106392
   940.000000    5.943581
   941.000000    5.805066
   942.000000    5.810421
   943.000000    5.807895
   944.000000    5.869216
   945.000000    6.045161
   946.000000    5.906667
   947.000000    5.800192
   948.000000    5.788942
   949.000000    5.995401
   950.000000    5.940864
   951.000000    5.922074
   952.000000    5.956982
   953.000000    5.936890
   954.000000    5.942330
   955.000000    5.972518
   956.000000    6.018744
   957.000000    5.855440
   958.000000    5.805985
   959.000000    5.845966
   960.000000    5.963338
   961.000000    5.850422
   962.000000    5.713958
   963.000000    5.630743
   964.000000    5.790314
   965.000000    5.988224
   966.000000    6.072243
   967.000000    6.011528
   968.000000    5.981210
   969.000000    5.891402
   970.000000    5.810942
   971.000000    5.798446
   972.000000    5.697887
   973.000000    5.727424
   974.000000    5.827996
   975.000000    5.855696
   976.000000    5.919468
   977.000000    5.956941
   978.000000    5.957311
   979.000000    5.935942
   980.000000    5.938917
   981.000000    5.878823
   982.000000    5.703425
   983.000000    5.836081
   984.000000    5.850304
   985.000000    5.765640
   986.000000    5.594826
   987.000000    5.796774
   988.000000    5.989961
   989.000000    6.096289
   990.000000    5.986176
   991.000000    5.997938
   992.000000    6.006097
   993.000000    5.956061
   994.000000    5.808804
   995.000000    5.823598
   996.000000    5.913810
   997.000000    5.993415
   998.000000    5.975409
   999.000000    5.929326
  1000.000000    5.880684
  1001.000000    5.722410
  1002.000000    5.720561
  1003.000000    5.720541
  1004.000000    5.709421
  1005.000000    5.694072
  1006.000000    5.685666
  1007.000000    5.682851
  1008.000000    5.682174
  1009.000000    5.681217
  1010.000000    5.678891
  1011.000000    5.679607
  1012.000000    5.684668
  1013.000000    5.693617
  1014.000000    5.701572
  1015.000000    5.712332
  1016.000000    5.723927
  1017.000000    5.714182
  1018.000000    5.704386
  1019.000000    5.694578
  1020.000000    5.685555
  1021.000000    5.684881
  1022.000000    5.686372
  1023.000000    5.686990
  1024.000000    5.689557
  1025.000000    5.692004
  1026.000000    5.689816
  1027.000000    5.683845
  1028.000000    5.665531
  1029.000000    5.649907
  1030.000000    5.660442
  1031.000000    5.671411
  1032.000000    5.660305
  1033.000000    5.648830
  1034.000000    5.644969
  1035.000000    5.644199
  1036.000000    5.645684
  1037.000000    5.645644
  1038.000000    5.640666
  1039.000000    5.635466
  1040.000000    5.638778
  1041.000000    5.647232
  1042.000000    5.645707
  1043.000000    5.631228
  1044.000000    5.617458
  1045.000000    5.618333
  1046.000000    5.618816
  1047.000000    5.626814
  1048.000000    5.637033
  1049.000000    5.638769
  1050.000000    5.638521
  1051.000000    5.642812
  1052.000000    5.646319
  1053.000000    5.644169
  1054.000000    5.640403
  1055.000000    5.632021
  1056.000000    5.619753
  1057.000000    5.616484
  1058.000000    5.625152
  1059.000000    5.631524
  1060.000000    5.629582
  1061.000000    5.626140
  1062.000000    5.635478
  1063.000000    5.641468
  1064.000000    5.640992
  1065.000000    5.644267
  1066.000000    5.642575
  1067.000000    5.635009
  1068.000000    5.633846
  1069.000000    5.630790
  1070.000000    5.621875
  1071.000000    5.615605
  1072.000000    5.619064
  1073.000000    5.625111
  1074.000000    5.624821
  1075.000000    5.622957
  1076.000000    5.621513
  1077.000000    5.608850
  1078.000000    5.596272
  1079.000000    5.594313
  1080.000000    5.593655
  1081.000000    5.597382
  1082.000000    5.603502
  1083.000000    5.604587
  1084.000000    5.606316
  1085.000000    5.609939
  1086.000000    5.617337
  1087.000000    5.618258
  1088.000000    5.612885
  1089.000000    5.602326
  1090.000000    5.589755
  1091.000000    5.580430
  1092.000000    5.577400
  1093.000000    5.579604
  1094.000000    5.586141
  1095.000000    5.591073
  1096.000000    5.589991
  1097.000000    5.591004
  1098.000000    5.584942
  1099.000000    5.580098
  1100.000000    5.586998
  1101.000000    5.597658
  1102.000000    5.594716
  1103.000000    5.593832
  1104.000000    5.579360
  1105.000000    5.567706
  1106.000000    5.552236
  1107.000000    5.551540
  1108.000000    5.553006
  1109.000000    5.560817
  1110.000000    5.563501
  1111.000000    5.538502
  1112.000000    5.526973
  1113.000000    5.534287
  1114.000000    5.544776
