ENVI ASCII Plot File [Wed Jul  1 16:19:29 2009]
Column 1: X Axis
Column 2: spectrum #1~~2
   350.000000    2.173543
   351.000000    2.248319
   352.000000    2.328109
   353.000000    2.324913
   354.000000    2.261523
   355.000000    2.192531
   356.000000    2.134736
   357.000000    2.045218
   358.000000    2.098569
   359.000000    2.145085
   360.000000    2.044331
   361.000000    2.084940
   362.000000    2.066377
   363.000000    2.021967
   364.000000    2.063902
   365.000000    2.128024
   366.000000    2.154096
   367.000000    2.142328
   368.000000    2.241694
   369.000000    2.176250
   370.000000    2.120839
   371.000000    2.201939
   372.000000    2.146590
   373.000000    2.100764
   374.000000    2.071570
   375.000000    2.070418
   376.000000    2.066907
   377.000000    2.080626
   378.000000    2.111800
   379.000000    2.136382
   380.000000    2.256642
   381.000000    2.298485
   382.000000    2.173678
   383.000000    2.277620
   384.000000    2.183423
   385.000000    2.049700
   386.000000    2.090490
   387.000000    2.056826
   388.000000    2.040098
   389.000000    2.051808
   390.000000    2.102711
   391.000000    2.131939
   392.000000    2.218336
   393.000000    2.359035
   394.000000    2.257418
   395.000000    2.284911
   396.000000    2.282359
   397.000000    2.134720
   398.000000    2.091423
   399.000000    2.094083
   400.000000    2.111211
   401.000000    2.091940
   402.000000    2.128532
   403.000000    2.174839
   404.000000    2.221797
   405.000000    2.265919
   406.000000    2.240447
   407.000000    2.237853
   408.000000    2.310047
   409.000000    2.266476
   410.000000    2.223141
   411.000000    2.193860
   412.000000    2.202265
   413.000000    2.145367
   414.000000    2.157411
   415.000000    2.226896
   416.000000    2.243850
   417.000000    2.293507
   418.000000    2.330557
   419.000000    2.338703
   420.000000    2.367243
   421.000000    2.378206
   422.000000    2.369940
   423.000000    2.336695
   424.000000    2.349144
   425.000000    2.334231
   426.000000    2.314162
   427.000000    2.373564
   428.000000    2.417707
   429.000000    2.467254
   430.000000    2.521708
   431.000000    2.518490
   432.000000    2.580514
   433.000000    2.629632
   434.000000    2.608763
   435.000000    2.616900
   436.000000    2.630467
   437.000000    2.644300
   438.000000    2.649740
   439.000000    2.691871
   440.000000    2.734730
   441.000000    2.776584
   442.000000    2.849713
   443.000000    2.897362
   444.000000    2.954999
   445.000000    3.041613
   446.000000    3.085984
   447.000000    3.130976
   448.000000    3.186781
   449.000000    3.270273
   450.000000    3.322403
   451.000000    3.398030
   452.000000    3.494536
   453.000000    3.574240
   454.000000    3.695174
   455.000000    3.814836
   456.000000    3.917428
   457.000000    4.034378
   458.000000    4.179164
   459.000000    4.319197
   460.000000    4.418074
   461.000000    4.547956
   462.000000    4.675833
   463.000000    4.809916
   464.000000    4.980919
   465.000000    5.109345
   466.000000    5.253553
   467.000000    5.423609
   468.000000    5.571924
   469.000000    5.739920
   470.000000    5.921263
   471.000000    6.113003
   472.000000    6.274894
   473.000000    6.436431
   474.000000    6.592929
   475.000000    6.732448
   476.000000    6.896409
   477.000000    7.052746
   478.000000    7.201592
   479.000000    7.376065
   480.000000    7.515778
   481.000000    7.646459
   482.000000    7.780938
   483.000000    7.987838
   484.000000    8.156631
   485.000000    8.311909
   486.000000    8.487413
   487.000000    8.598798
   488.000000    8.721431
   489.000000    8.844028
   490.000000    8.897981
   491.000000    8.998039
   492.000000    9.101666
   493.000000    9.194255
   494.000000    9.280099
   495.000000    9.378984
   496.000000    9.472822
   497.000000    9.542724
   498.000000    9.605193
   499.000000    9.640806
   500.000000    9.663094
   501.000000    9.707453
   502.000000    9.684579
   503.000000    9.671032
   504.000000    9.682179
   505.000000    9.697714
   506.000000    9.681158
   507.000000    9.679621
   508.000000    9.724963
   509.000000    9.690007
   510.000000    9.673212
   511.000000    9.659229
   512.000000    9.618432
   513.000000    9.603145
   514.000000    9.558405
   515.000000    9.483291
   516.000000    9.414332
   517.000000    9.370213
   518.000000    9.312225
   519.000000    9.226582
   520.000000    9.225977
   521.000000    9.183765
   522.000000    9.113278
   523.000000    9.026141
   524.000000    8.948683
   525.000000    8.872393
   526.000000    8.791251
   527.000000    8.686153
   528.000000    8.567594
   529.000000    8.460870
   530.000000    8.367845
   531.000000    8.215788
   532.000000    8.116075
   533.000000    8.030783
   534.000000    7.931775
   535.000000    7.831127
   536.000000    7.716580
   537.000000    7.600467
   538.000000    7.508979
   539.000000    7.385090
   540.000000    7.254802
   541.000000    7.129330
   542.000000    7.045560
   543.000000    6.919533
   544.000000    6.805611
   545.000000    6.734000
   546.000000    6.648359
   547.000000    6.567994
   548.000000    6.485111
   549.000000    6.387320
   550.000000    6.317195
   551.000000    6.234058
   552.000000    6.136611
   553.000000    6.040392
   554.000000    5.984441
   555.000000    5.920533
   556.000000    5.830992
   557.000000    5.745807
   558.000000    5.679112
   559.000000    5.618041
   560.000000    5.549197
   561.000000    5.484986
   562.000000    5.426233
   563.000000    5.372015
   564.000000    5.320369
   565.000000    5.229246
   566.000000    5.160045
   567.000000    5.119904
   568.000000    5.003365
   569.000000    4.936263
   570.000000    4.886957
   571.000000    4.834123
   572.000000    4.773655
   573.000000    4.701050
   574.000000    4.628563
   575.000000    4.581779
   576.000000    4.548705
   577.000000    4.491056
   578.000000    4.414473
   579.000000    4.389457
   580.000000    4.307734
   581.000000    4.218363
   582.000000    4.145966
   583.000000    4.090550
   584.000000    4.030894
   585.000000    3.968753
   586.000000    3.908941
   587.000000    3.887587
   588.000000    3.875655
   589.000000    3.854697
   590.000000    3.766624
   591.000000    3.737331
   592.000000    3.687988
   593.000000    3.596057
   594.000000    3.560278
   595.000000    3.506126
   596.000000    3.451857
   597.000000    3.415255
   598.000000    3.393419
   599.000000    3.369304
   600.000000    3.352858
   601.000000    3.372702
   602.000000    3.319664
   603.000000    3.289561
   604.000000    3.294451
   605.000000    3.237401
   606.000000    3.194406
   607.000000    3.156832
   608.000000    3.119590
   609.000000    3.084692
   610.000000    3.065969
   611.000000    3.051437
   612.000000    3.019477
   613.000000    3.059787
   614.000000    3.059895
   615.000000    3.020384
   616.000000    3.026494
   617.000000    3.009548
   618.000000    2.988085
   619.000000    2.969782
   620.000000    2.940934
   621.000000    2.916670
   622.000000    2.895799
   623.000000    2.877310
   624.000000    2.849702
   625.000000    2.863900
   626.000000    2.902683
   627.000000    2.893970
   628.000000    2.901048
   629.000000    2.897913
   630.000000    2.878813
   631.000000    2.880758
   632.000000    2.854973
   633.000000    2.824292
   634.000000    2.807658
   635.000000    2.813754
   636.000000    2.807123
   637.000000    2.806931
   638.000000    2.864030
   639.000000    2.872744
   640.000000    2.871460
   641.000000    2.872152
   642.000000    2.902459
   643.000000    2.889470
   644.000000    2.870895
   645.000000    2.869968
   646.000000    2.860409
   647.000000    2.865669
   648.000000    2.864229
   649.000000    2.819250
   650.000000    2.862978
   651.000000    2.894442
   652.000000    2.904730
   653.000000    2.925270
   654.000000    2.937856
   655.000000    2.946056
   656.000000    2.950523
   657.000000    2.931900
   658.000000    2.924786
   659.000000    2.933054
   660.000000    2.964153
   661.000000    2.912733
   662.000000    2.914202
   663.000000    2.954346
   664.000000    2.961430
   665.000000    2.964684
   666.000000    2.983323
   667.000000    3.017865
   668.000000    3.010642
   669.000000    3.012107
   670.000000    3.012833
   671.000000    3.005945
   672.000000    3.037505
   673.000000    3.030011
   674.000000    3.008635
   675.000000    3.023705
   676.000000    3.018397
   677.000000    3.015871
   678.000000    3.023599
   679.000000    3.061199
   680.000000    3.078140
   681.000000    3.096982
   682.000000    3.131566
   683.000000    3.121776
   684.000000    3.152242
   685.000000    3.166536
   686.000000    3.092161
   687.000000    3.115581
   688.000000    3.139913
   689.000000    3.155959
   690.000000    3.163281
   691.000000    3.213700
   692.000000    3.255133
   693.000000    3.275200
   694.000000    3.328351
   695.000000    3.333996
   696.000000    3.343664
   697.000000    3.408596
   698.000000    3.403343
   699.000000    3.401068
   700.000000    3.412651
   701.000000    3.458651
   702.000000    3.476204
   703.000000    3.500507
   704.000000    3.541648
   705.000000    3.611850
   706.000000    3.695138
   707.000000    3.748984
   708.000000    3.741760
   709.000000    3.816747
   710.000000    3.843157
   711.000000    3.846329
   712.000000    3.875854
   713.000000    3.956295
   714.000000    4.014977
   715.000000    4.047005
   716.000000    4.131218
   717.000000    4.210050
   718.000000    4.299535
   719.000000    4.414150
   720.000000    4.459329
   721.000000    4.566748
   722.000000    4.680672
   723.000000    4.736444
   724.000000    4.780173
   725.000000    4.842101
   726.000000    4.922596
   727.000000    5.017956
   728.000000    5.142722
   729.000000    5.264679
   730.000000    5.384967
   731.000000    5.551605
   732.000000    5.677077
   733.000000    5.802371
   734.000000    5.965219
   735.000000    6.088711
   736.000000    6.208445
   737.000000    6.334393
   738.000000    6.485693
   739.000000    6.641337
   740.000000    6.800754
   741.000000    6.964016
   742.000000    7.130918
   743.000000    7.357881
   744.000000    7.578248
   745.000000    7.750534
   746.000000    7.993199
   747.000000    8.222348
   748.000000    8.434564
   749.000000    8.622226
   750.000000    8.854111
   751.000000    9.083549
   752.000000    9.303529
   753.000000    9.521057
   754.000000    9.660460
   755.000000    9.906437
   756.000000   10.405437
   757.000000   10.650031
   758.000000   10.930441
   759.000000   11.264136
   760.000000   11.611213
   761.000000   11.921510
   762.000000   12.252956
   763.000000   12.594702
   764.000000   12.901023
   765.000000   13.245384
   766.000000   13.579375
   767.000000   13.897716
   768.000000   14.273589
   769.000000   14.633111
   770.000000   15.004754
   771.000000   15.408627
   772.000000   15.818244
   773.000000   16.201623
   774.000000   16.579391
   775.000000   16.995456
   776.000000   17.361545
   777.000000   17.762841
   778.000000   18.199011
   779.000000   18.542537
   780.000000   18.953546
   781.000000   19.387795
   782.000000   19.826163
   783.000000   20.211720
   784.000000   20.641603
   785.000000   21.097919
   786.000000   21.551527
   787.000000   22.009213
   788.000000   22.439824
   789.000000   22.851700
   790.000000   23.304805
   791.000000   23.699489
   792.000000   24.104265
   793.000000   24.538919
   794.000000   24.958050
   795.000000   25.369629
   796.000000   25.806019
   797.000000   26.299648
   798.000000   26.775230
   799.000000   27.243510
   800.000000   27.693596
   801.000000   28.101596
   802.000000   28.520489
   803.000000   28.898911
   804.000000   29.235600
   805.000000   29.645340
   806.000000   30.065663
   807.000000   30.444856
   808.000000   30.737298
   809.000000   31.136468
   810.000000   31.548007
   811.000000   31.979247
   812.000000   32.441671
   813.000000   32.869470
   814.000000   33.303341
   815.000000   33.713820
   816.000000   33.963917
   817.000000   34.247746
   818.000000   34.620622
   819.000000   35.078135
   820.000000   35.417362
   821.000000   35.791996
   822.000000   36.168744
   823.000000   36.491003
   824.000000   36.858612
   825.000000   37.194378
   826.000000   37.517967
   827.000000   37.935364
   828.000000   38.252895
   829.000000   38.533253
   830.000000   38.797669
   831.000000   39.108467
   832.000000   39.398743
   833.000000   39.693038
   834.000000   40.011075
   835.000000   40.287993
   836.000000   40.611583
   837.000000   40.939740
   838.000000   41.160912
   839.000000   41.442082
   840.000000   41.710073
   841.000000   41.949478
   842.000000   42.164345
   843.000000   42.400103
   844.000000   42.611265
   845.000000   42.762658
   846.000000   43.016723
   847.000000   43.235945
   848.000000   43.456401
   849.000000   43.736726
   850.000000   43.968222
   851.000000   44.190422
   852.000000   44.398703
   853.000000   44.564691
   854.000000   44.706965
   855.000000   44.874084
   856.000000   45.082060
   857.000000   45.170379
   858.000000   45.308645
   859.000000   45.449166
   860.000000   45.532651
   861.000000   45.768043
   862.000000   45.950129
   863.000000   46.087753
   864.000000   46.266871
   865.000000   46.467030
   866.000000   46.601267
   867.000000   46.656310
   868.000000   46.785608
   869.000000   46.863782
   870.000000   46.948367
   871.000000   47.087206
   872.000000   47.147558
   873.000000   47.243174
   874.000000   47.357592
   875.000000   47.447280
   876.000000   47.554091
   877.000000   47.695371
   878.000000   47.859768
   879.000000   47.944266
   880.000000   48.071607
   881.000000   48.159902
   882.000000   48.158927
   883.000000   48.231672
   884.000000   48.269602
   885.000000   48.295504
   886.000000   48.344089
   887.000000   48.390500
   888.000000   48.437212
   889.000000   48.496659
   890.000000   48.622390
   891.000000   48.635527
   892.000000   48.654953
   893.000000   48.726617
   894.000000   48.620911
   895.000000   48.661241
   896.000000   48.696704
   897.000000   48.556467
   898.000000   48.670321
   899.000000   48.747196
   900.000000   48.784865
   901.000000   48.820737
   902.000000   48.966584
   903.000000   49.060457
   904.000000   49.067678
   905.000000   49.164384
   906.000000   49.157425
   907.000000   49.124171
   908.000000   49.123980
   909.000000   49.002154
   910.000000   48.990588
   911.000000   49.021457
   912.000000   48.950061
   913.000000   49.007515
   914.000000   49.166235
   915.000000   49.362486
   916.000000   49.276033
   917.000000   49.500859
   918.000000   49.712054
   919.000000   49.748124
   920.000000   49.669323
   921.000000   49.505115
   922.000000   49.317516
   923.000000   49.210357
   924.000000   48.967239
   925.000000   48.772494
   926.000000   48.654281
   927.000000   48.608154
   928.000000   48.523966
   929.000000   48.538319
   930.000000   48.730677
   931.000000   48.595507
   932.000000   48.793821
   933.000000   48.967020
   934.000000   48.755279
   935.000000   48.535154
   936.000000   48.352304
   937.000000   48.131090
   938.000000   47.685957
   939.000000   48.116670
   940.000000   48.559200
   941.000000   48.825753
   942.000000   48.996831
   943.000000   49.067381
   944.000000   49.061011
   945.000000   48.984127
   946.000000   48.814566
   947.000000   48.769270
   948.000000   48.736112
   949.000000   48.533322
   950.000000   48.196636
   951.000000   48.241289
   952.000000   48.546734
   953.000000   48.315136
   954.000000   48.517874
   955.000000   48.884394
   956.000000   49.307442
   957.000000   49.529795
   958.000000   49.610291
   959.000000   49.474013
   960.000000   49.008446
   961.000000   49.082922
   962.000000   49.123456
   963.000000   49.129570
   964.000000   49.215419
   965.000000   48.965617
   966.000000   49.008919
   967.000000   49.453316
   968.000000   49.508377
   969.000000   49.824449
   970.000000   50.155383
   971.000000   50.297127
   972.000000   50.024703
   973.000000   49.893937
   974.000000   49.753183
   975.000000   49.207307
   976.000000   49.375111
   977.000000   49.357804
   978.000000   49.097287
   979.000000   49.346741
   980.000000   49.664980
   981.000000   50.009517
   982.000000   50.354614
   983.000000   50.034974
   984.000000   49.930558
   985.000000   50.009522
   986.000000   50.253880
   987.000000   49.724203
   988.000000   49.542577
   989.000000   49.696412
   990.000000   49.494894
   991.000000   49.412661
   992.000000   49.429404
   993.000000   49.536573
   994.000000   49.541335
   995.000000   49.881474
   996.000000   50.183305
   997.000000   50.010572
   998.000000   50.513855
   999.000000   50.436927
  1000.000000   49.896479
  1001.000000   50.423799
  1002.000000   50.352945
  1003.000000   50.258851
  1004.000000   50.144218
  1005.000000   50.057043
  1006.000000   50.125376
  1007.000000   50.223966
  1008.000000   50.331926
  1009.000000   50.426641
  1010.000000   50.315053
  1011.000000   50.142743
  1012.000000   50.089664
  1013.000000   50.124183
  1014.000000   50.174521
  1015.000000   50.150873
  1016.000000   50.121296
  1017.000000   50.178619
  1018.000000   50.226299
  1019.000000   50.255697
  1020.000000   50.285467
  1021.000000   50.254718
  1022.000000   50.209574
  1023.000000   50.264435
  1024.000000   50.358852
  1025.000000   50.378109
  1026.000000   50.338808
  1027.000000   50.278588
  1028.000000   50.291375
  1029.000000   50.301554
  1030.000000   50.277881
  1031.000000   50.254595
  1032.000000   50.354810
  1033.000000   50.476325
  1034.000000   50.466085
  1035.000000   50.421411
  1036.000000   50.379577
  1037.000000   50.345562
  1038.000000   50.332441
  1039.000000   50.352250
  1040.000000   50.436703
  1041.000000   50.520523
  1042.000000   50.504342
  1043.000000   50.452016
  1044.000000   50.446991
  1045.000000   50.482609
  1046.000000   50.532049
  1047.000000   50.512650
  1048.000000   50.493507
  1049.000000   50.525773
  1050.000000   50.568250
  1051.000000   50.584147
  1052.000000   50.571413
  1053.000000   50.604244
  1054.000000   50.649968
  1055.000000   50.645822
  1056.000000   50.638372
  1057.000000   50.637492
  1058.000000   50.584801
  1059.000000   50.562378
  1060.000000   50.606280
  1061.000000   50.580084
  1062.000000   50.505275
  1063.000000   50.488867
  1064.000000   50.455188
  1065.000000   50.386311
  1066.000000   50.319457
  1067.000000   50.283284
  1068.000000   50.253479
  1069.000000   50.323494
  1070.000000   50.457553
  1071.000000   50.477078
  1072.000000   50.434273
  1073.000000   50.446919
  1074.000000   50.468644
  1075.000000   50.455041
  1076.000000   50.463921
  1077.000000   50.538488
  1078.000000   50.673051
  1079.000000   50.778106
  1080.000000   50.877897
  1081.000000   50.917643
  1082.000000   50.836738
  1083.000000   50.797125
  1084.000000   50.718541
  1085.000000   50.656469
  1086.000000   50.700837
  1087.000000   50.751908
  1088.000000   50.716510
  1089.000000   50.651547
  1090.000000   50.628694
  1091.000000   50.657850
  1092.000000   50.724847
  1093.000000   50.779879
  1094.000000   50.779384
  1095.000000   50.710184
  1096.000000   50.683225
  1097.000000   50.678570
  1098.000000   50.689275
  1099.000000   50.718157
  1100.000000   50.695364
  1101.000000   50.604479
  1102.000000   50.538156
  1103.000000   50.545400
  1104.000000   50.566512
  1105.000000   50.531415
  1106.000000   50.592279
  1107.000000   50.684291
  1108.000000   50.712370
  1109.000000   50.657658
  1110.000000   50.618734
  1111.000000   50.655256
  1112.000000   50.703321
  1113.000000   50.848694
  1114.000000   50.995785
